i lambda [nm]            el [W/(cm2nm)]         Photonen [cm-2 nm^-1 s-1]
1 300 1.0205E-7 1.5412E11
2 310 5.0939E-6 7.94942E12
3 320 2.0527E-5 3.30673E13
4 330 4.7139E-5 7.83101E13
5 340 5.018E-5 8.58881E13
6 350 5.2798E-5 9.3027E13
7 360 5.9817E-5 1.08405E14
8 370 7.5507E-5 1.40641E14
9 380 7.0077E-5 1.34055E14
10 390 7.9699E-5 1.56474E14
11 400 1.1141E-4 2.2434E14
12 410 1.0485E-4 2.16409E14
13 420 1.1232E-4 2.37481E14
14 430 8.7462E-5 1.89326E14
15 440 1.3499E-4 2.99004E14
16 450 1.5595E-4 3.53282E14
17 460 1.5291E-4 3.54093E14
18 470 1.5077E-4 3.56727E14
19 480 1.6181E-4 3.90994E14
20 490 1.6224E-4 4.002E14
21 500 1.5451E-4 3.88911E14
22 510 1.5481E-4 3.97459E14
23 520 1.5236E-4 3.98839E14
24 530 1.5446E-4 4.12112E14
25 540 1.4825E-4 4.03006E14
26 550 1.5399E-4 4.26362E14
27 560 1.474E-4 4.15536E14
28 570 1.4816E-4 4.25137E14
29 580 1.502E-4 4.38552E14
30 590 1.3709E-4 4.07175E14
31 600 1.4753E-4 4.4561E14
32 610 1.4686E-4 4.50979E14
33 620 1.4739E-4 4.60027E14
34 630 1.3924E-4 4.41599E14
35 640 1.434E-4 4.62011E14
36 650 1.3594E-4 4.4482E14
37 660 1.3992E-4 4.64887E14
38 670 1.4196E-4 4.78811E14
39 680 1.3969E-4 4.78187E14
40 690 1.1821E-4 4.10607E14
41 700 1.2823E-4 4.51867E14
42 710 1.3175E-4 4.70904E14
43 720 9.855E-5 3.57201E14
44 730 1.1285E-4 4.14713E14
45 740 1.2195E-4 4.54294E14
46 750 1.2341E-4 4.65945E14
47 760 2.6604E-5 1.01785E14
48 770 1.1608E-4 4.49957E14
49 780 1.1636E-4 4.56901E14
50 790 1.091E-4 4.33886E14
51 800 1.0725E-4 4.31927E14
52 810 1.0559E-4 4.30557E14
53 820 8.6188E-5 3.55782E14
54 830 9.1601E-5 3.82738E14
55 840 1.0157E-4 4.29505E14
56 850 8.9372E-5 3.82423E14
57 860 9.8816E-5 4.27808E14
58 870 9.6755E-5 4.23756E14
59 880 9.3957E-5 4.16232E14
60 890 9.2393E-5 4.13954E14
61 900 7.426E-5 3.3645E14
62 910 6.2467E-5 2.86164E14
63 920 7.4414E-5 3.4464E14
64 930 4.321E-5 2.02298E14
65 940 4.7181E-5 2.23264E14
66 950 1.4726E-5 7.04258E13
67 960 4.2066E-5 2.03295E14
68 970 6.3461E-5 3.09886E14
69 980 6.0468E-5 2.98315E14
70 990 7.3227E-5 3.64947E14
71 1000 7.3532E-5 3.70169E14
72 1010 7.1914E-5 3.65644E14
73 1020 6.9896E-5 3.58902E14
74 1030 6.9055E-5 3.5806E14
75 1040 6.717E-5 3.51667E14
76 1050 6.5463E-5 3.46026E14
77 1060 6.3585E-5 3.393E14
78 1070 6.0469E-5 3.25717E14
79 1080 5.9722E-5 3.24699E14
80 1090 5.5573E-5 3.0494E14
81 1100 4.8577E-5 2.68997E14
82 1110 4.7899E-5 2.67653E14
83 1120 1.4189E-5 8.00006E13
84 1130 7.0574E-6 4.01464E13
85 1140 2.5599E-5 1.4691E14
86 1150 1.2164E-5 7.04203E13
87 1160 2.8648E-5 1.67292E14
88 1170 4.5873E-5 2.70188E14
89 1180 4.4069E-5 2.61781E14
90 1190 4.6239E-5 2.76999E14
91 1200 4.4825E-5 2.70785E14
