i	lambda [nm]	el [W/(cm2nm)]	Photonen [cm-2 nm^-1 s-1]
1	300	2.56E-07	3.86E+11
2	302	1.48E-06	2.25E+12
3	304	1.77E-06	2.70E+12
4	306	1.24E-06	1.90E+12
5	308	1.29E-06	2.00E+12
6	310	8.39E-07	1.31E+12
7	312	1.14E-06	1.79E+12
8	314	1.16E-06	1.83E+12
9	316	1.34E-06	2.13E+12
10	318	8.79E-07	1.40E+12
11	320	7.10E-07	1.14E+12
12	322	1.19E-06	1.93E+12
13	324	8.96E-07	1.46E+12
14	326	1.43E-06	2.35E+12
15	328	6.50E-07	1.07E+12
16	330	7.23E-07	1.20E+12
17	332	1.19E-06	1.99E+12
18	334	7.78E-07	1.31E+12
19	336	1.31E-06	2.21E+12
20	338	8.43E-07	1.43E+12
21	340	1.29E-06	2.20E+12
22	342	1.64E-06	2.82E+12
23	344	1.64E-06	2.84E+12
24	346	8.95E-07	1.56E+12
25	348	1.97E-06	3.45E+12
26	350	1.74E-06	3.06E+12
27	352	1.46E-06	2.58E+12
28	354	1.19E-06	2.12E+12
29	356	1.69E-06	3.02E+12
30	358	1.60E-06	2.87E+12
31	360	1.84E-06	3.33E+12
32	362	1.13E-06	2.06E+12
33	364	2.63E-06	4.82E+12
34	366	2.42E-06	4.45E+12
35	368	1.56E-06	2.89E+12
36	370	1.80E-06	3.34E+12
37	372	1.87E-06	3.50E+12
38	374	1.93E-06	3.62E+12
39	376	1.37E-06	2.59E+12
40	378	2.02E-06	3.84E+12
41	380	2.08E-06	3.97E+12
42	382	2.52E-06	4.83E+12
43	384	2.36E-06	4.56E+12
44	386	2.24E-06	4.35E+12
45	388	1.70E-06	3.31E+12
46	390	1.68E-06	3.30E+12
47	392	2.11E-06	4.15E+12
48	394	2.43E-06	4.81E+12
49	396	2.67E-06	5.32E+12
50	398	2.95E-06	5.90E+12
51	400	3.20E-06	6.44E+12
52	402	3.23E-06	6.52E+12
53	404	2.91E-06	5.91E+12
54	406	3.79E-06	7.74E+12
55	408	4.97E-06	1.02E+13
56	410	4.57E-06	9.41E+12
57	412	5.57E-06	1.15E+13
58	414	7.06E-06	1.47E+13
59	416	8.13E-06	1.70E+13
60	418	1.09E-05	2.29E+13
61	420	1.40E-05	2.97E+13
62	422	1.91E-05	4.05E+13
63	424	2.51E-05	5.34E+13
64	426	3.10E-05	6.64E+13
65	428	4.07E-05	8.77E+13
66	430	5.16E-05	1.11E+14
67	432	6.35E-05	1.38E+14
68	434	7.74E-05	1.69E+14
69	436	9.40E-05	2.06E+14
70	438	1.11E-04	2.45E+14
71	440	1.31E-04	2.89E+14
72	442	1.54E-04	3.43E+14
73	444	1.80E-04	4.01E+14
74	446	2.11E-04	4.72E+14
75	448	2.45E-04	5.52E+14
76	450	2.84E-04	6.42E+14
77	452	3.21E-04	7.29E+14
78	454	3.49E-04	7.96E+14
79	456	3.71E-04	8.50E+14
80	458	3.81E-04	8.77E+14
81	460	3.71E-04	8.58E+14
82	462	3.58E-04	8.31E+14
83	464	3.37E-04	7.86E+14
84	466	3.11E-04	7.29E+14
85	468	2.88E-04	6.78E+14
86	470	2.71E-04	6.41E+14
87	472	2.56E-04	6.07E+14
88	474	2.43E-04	5.79E+14
89	476	2.29E-04	5.48E+14
90	478	2.18E-04	5.23E+14
91	480	2.08E-04	5.02E+14
92	482	1.95E-04	4.74E+14
93	484	1.87E-04	4.55E+14
94	486	1.79E-04	4.38E+14
95	488	1.75E-04	4.29E+14
96	490	1.73E-04	4.27E+14
97	492	1.73E-04	4.29E+14
98	494	1.75E-04	4.35E+14
99	496	1.80E-04	4.48E+14
100	498	1.86E-04	4.67E+14
101	500	1.94E-04	4.88E+14
102	502	2.06E-04	5.20E+14
103	504	2.19E-04	5.54E+14
104	506	2.34E-04	5.96E+14
105	508	2.49E-04	6.36E+14
106	510	2.67E-04	6.85E+14
107	512	2.86E-04	7.36E+14
108	514	3.06E-04	7.90E+14
109	516	3.24E-04	8.40E+14
110	518	3.44E-04	8.97E+14
111	520	3.64E-04	9.51E+14
112	522	3.81E-04	1.00E+15
113	524	4.01E-04	1.06E+15
114	526	4.18E-04	1.11E+15
115	528	4.34E-04	1.15E+15
116	530	4.53E-04	1.21E+15
117	532	4.69E-04	1.25E+15
118	534	4.84E-04	1.30E+15
119	536	4.98E-04	1.34E+15
120	538	5.13E-04	1.39E+15
121	540	5.27E-04	1.43E+15
122	542	5.41E-04	1.48E+15
123	544	5.58E-04	1.53E+15
124	546	5.69E-04	1.56E+15
125	548	5.84E-04	1.61E+15
126	550	5.99E-04	1.66E+15
127	552	6.13E-04	1.70E+15
128	554	6.28E-04	1.75E+15
129	556	6.43E-04	1.80E+15
130	558	6.61E-04	1.86E+15
131	560	6.76E-04	1.90E+15
132	562	6.90E-04	1.95E+15
133	564	7.05E-04	2.00E+15
134	566	7.20E-04	2.05E+15
135	568	7.33E-04	2.09E+15
136	570	7.46E-04	2.14E+15
137	572	7.60E-04	2.19E+15
138	574	7.75E-04	2.24E+15
139	576	7.88E-04	2.28E+15
140	578	8.01E-04	2.33E+15
141	580	8.13E-04	2.37E+15
142	582	8.25E-04	2.41E+15
143	584	8.36E-04	2.46E+15
144	586	8.46E-04	2.49E+15
145	588	8.57E-04	2.53E+15
146	590	8.63E-04	2.56E+15
147	592	8.71E-04	2.59E+15
148	594	8.77E-04	2.62E+15
149	596	8.79E-04	2.63E+15
150	598	8.83E-04	2.66E+15
151	600	8.83E-04	2.66E+15
152	602	8.86E-04	2.68E+15
153	604	8.85E-04	2.69E+15
154	606	8.79E-04	2.68E+15
155	608	8.76E-04	2.68E+15
156	610	8.72E-04	2.67E+15
157	612	8.64E-04	2.66E+15
158	614	8.57E-04	2.64E+15
159	616	8.45E-04	2.62E+15
160	618	8.33E-04	2.59E+15
161	620	8.21E-04	2.56E+15
162	622	8.09E-04	2.53E+15
163	624	7.92E-04	2.48E+15
164	626	7.77E-04	2.45E+15
165	628	7.61E-04	2.40E+15
166	630	7.43E-04	2.35E+15
167	632	7.25E-04	2.30E+15
168	634	7.07E-04	2.25E+15
169	636	6.85E-04	2.19E+15
170	638	6.68E-04	2.14E+15
171	640	6.44E-04	2.07E+15
172	642	6.26E-04	2.02E+15
173	644	6.05E-04	1.96E+15
174	646	5.83E-04	1.89E+15
175	648	5.63E-04	1.84E+15
176	650	5.40E-04	1.76E+15
177	652	5.21E-04	1.71E+15
178	654	4.98E-04	1.64E+15
179	656	4.80E-04	1.58E+15
180	658	4.58E-04	1.51E+15
181	660	4.39E-04	1.46E+15
182	662	4.17E-04	1.39E+15
183	664	4.00E-04	1.33E+15
184	666	3.79E-04	1.27E+15
185	668	3.61E-04	1.21E+15
186	670	3.43E-04	1.15E+15
187	672	3.27E-04	1.11E+15
188	674	3.12E-04	1.06E+15
189	676	2.95E-04	1.00E+15
190	678	2.80E-04	9.54E+14
191	680	2.65E-04	9.07E+14
192	682	2.51E-04	8.59E+14
193	684	2.39E-04	8.21E+14
194	686	2.27E-04	7.82E+14
195	688	2.15E-04	7.43E+14
196	690	2.02E-04	7.00E+14
197	692	1.91E-04	6.65E+14
198	694	1.81E-04	6.33E+14
199	696	1.70E-04	5.96E+14
200	698	1.61E-04	5.66E+14
201	700	1.53E-04	5.37E+14
202	702	1.44E-04	5.08E+14
203	704	1.36E-04	4.82E+14
204	706	1.27E-04	4.52E+14
205	708	1.21E-04	4.30E+14
206	710	1.13E-04	4.04E+14
207	712	1.07E-04	3.82E+14
208	714	1.01E-04	3.61E+14
209	716	9.53E-05	3.43E+14
210	718	8.91E-05	3.22E+14
211	720	8.51E-05	3.08E+14
212	722	8.00E-05	2.90E+14
213	724	7.57E-05	2.76E+14
214	726	7.15E-05	2.61E+14
215	728	6.70E-05	2.45E+14
216	730	6.44E-05	2.36E+14
217	732	6.01E-05	2.21E+14
218	734	5.62E-05	2.07E+14
219	736	5.33E-05	1.97E+14
220	738	4.88E-05	1.81E+14
221	740	4.71E-05	1.75E+14
222	742	4.55E-05	1.70E+14
223	744	4.27E-05	1.60E+14
224	746	4.02E-05	1.51E+14
225	748	3.73E-05	1.40E+14
226	750	3.49E-05	1.32E+14
227	752	3.39E-05	1.28E+14
228	754	3.07E-05	1.16E+14
229	756	2.96E-05	1.12E+14
230	758	2.80E-05	1.07E+14
231	760	2.60E-05	9.92E+13
232	762	2.45E-05	9.38E+13
233	764	2.34E-05	9.00E+13
234	766	2.20E-05	8.49E+13
235	768	2.25E-05	8.69E+13
236	770	2.00E-05	7.74E+13
237	772	1.99E-05	7.72E+13
238	774	1.83E-05	7.13E+13
239	776	1.65E-05	6.44E+13
240	778	1.65E-05	6.45E+13
241	780	1.49E-05	5.84E+13
242	782	1.12E-05	4.40E+13
243	784	1.45E-05	5.73E+13
244	786	1.10E-05	4.34E+13
245	788	1.33E-05	5.25E+13
246	790	1.13E-05	4.51E+13
247	792	1.06E-05	4.20E+13
248	794	9.10E-06	3.63E+13
249	796	9.02E-06	3.61E+13
250	798	9.58E-06	3.84E+13
251	800	9.10E-06	3.66E+13
252	802	9.77E-06	3.94E+13
253	804	7.94E-06	3.21E+13
254	806	8.94E-06	3.62E+13
255	808	9.87E-06	4.01E+13
256	810	6.38E-06	2.60E+13
257	812	6.51E-06	2.66E+13
258	814	6.32E-06	2.59E+13
259	816	1.04E-05	4.26E+13
260	818	4.99E-06	2.05E+13
261	820	7.37E-06	3.04E+13
262	822	3.82E-06	1.58E+13
263	824	6.31E-06	2.62E+13
264	826	3.25E-06	1.35E+13
265	828	6.34E-06	2.64E+13
266	830	2.90E-06	1.21E+13
267	832	3.25E-06	1.36E+13
268	834	3.37E-06	1.41E+13
269	836	4.04E-06	1.70E+13
270	838	3.52E-06	1.48E+13
271	840	4.08E-06	1.72E+13
272	842	1.67E-07	7.08E+11
273	844	4.97E-06	2.11E+13
274	846	3.66E-06	1.56E+13
275	848	3.29E-06	1.40E+13
276	850	4.12E-06	1.76E+13
277	852	8.35E-07	3.58E+12
278	854	5.08E-06	2.18E+13
279	856	8.92E-06	3.84E+13
280	858	3.82E-07	1.65E+12
281	860	1.42E-06	6.14E+12
282	862	3.38E-06	1.46E+13
283	864	1.22E-06	5.32E+12
284	866	2.19E-06	9.55E+12
285	868	2.65E-06	1.16E+13
286	870	2.34E-06	1.02E+13
287	872	7.17E-06	3.14E+13
288	874	0.00E+00	0.00E+00
289	876	1.08E-05	4.77E+13
290	878	7.41E-07	3.27E+12
291	880	4.38E-06	1.94E+13
292	882	1.22E-05	5.41E+13
293	884	0.00E+00	0.00E+00
294	886	9.51E-07	4.24E+12
295	888	8.69E-06	3.88E+13
296	890	2.46E-06	1.10E+13
297	892	1.61E-06	7.23E+12
298	894	1.29E-05	5.80E+13
299	896	2.96E-06	1.34E+13
300	898	9.08E-06	4.10E+13
