i	lambda [nm]	el [W/(cm2nm)]	Photonen [cm-2 nm^-1 s-1]
1	412	7.38E-08	1.53E+11
2	413	1.31E-06	2.72E+12
3	414	2.36E-06	4.91E+12
4	415	1.50E-06	3.13E+12
5	416	1.36E-06	2.84E+12
6	417	3.70E-06	7.76E+12
7	418	5.46E-06	1.15E+13
8	419	5.74E-06	1.21E+13
9	420	8.33E-06	1.76E+13
10	421	1.05E-05	2.22E+13
11	422	1.21E-05	2.56E+13
12	423	1.42E-05	3.02E+13
13	424	1.57E-05	3.34E+13
14	425	1.74E-05	3.71E+13
15	426	2.01E-05	4.30E+13
16	427	2.22E-05	4.76E+13
17	428	2.47E-05	5.31E+13
18	429	2.78E-05	5.99E+13
19	430	3.13E-05	6.76E+13
20	431	3.30E-05	7.15E+13
21	432	3.64E-05	7.90E+13
22	433	4.03E-05	8.77E+13
23	434	4.20E-05	9.17E+13
24	435	4.60E-05	1.01E+14
25	436	4.88E-05	1.07E+14
26	437	5.15E-05	1.13E+14
27	438	5.42E-05	1.19E+14
28	439	5.67E-05	1.25E+14
29	440	6.09E-05	1.35E+14
30	441	6.43E-05	1.43E+14
31	442	6.49E-05	1.44E+14
32	443	6.32E-05	1.41E+14
33	444	6.07E-05	1.35E+14
34	445	6.00E-05	1.34E+14
35	446	5.64E-05	1.26E+14
36	447	5.19E-05	1.17E+14
37	448	4.85E-05	1.09E+14
38	449	4.35E-05	9.82E+13
39	450	3.70E-05	8.37E+13
40	451	3.25E-05	7.37E+13
41	452	2.77E-05	6.30E+13
42	453	2.47E-05	5.62E+13
43	454	2.15E-05	4.92E+13
44	455	1.90E-05	4.34E+13
45	456	1.74E-05	3.99E+13
46	457	1.55E-05	3.56E+13
47	458	1.42E-05	3.28E+13
48	459	1.26E-05	2.91E+13
49	460	1.13E-05	2.61E+13
50	461	1.06E-05	2.45E+13
51	462	1.04E-05	2.41E+13
52	463	9.10E-06	2.12E+13
53	464	7.75E-06	1.81E+13
54	465	6.33E-06	1.48E+13
55	466	5.76E-06	1.35E+13
56	467	5.77E-06	1.35E+13
57	468	5.83E-06	1.37E+13
58	469	6.34E-06	1.50E+13
59	470	5.30E-06	1.25E+13
60	471	4.89E-06	1.16E+13
61	472	5.23E-06	1.24E+13
62	473	4.95E-06	1.18E+13
63	474	4.60E-06	1.10E+13
64	475	4.06E-06	9.69E+12
65	476	3.91E-06	9.36E+12
66	477	3.16E-06	7.58E+12
67	478	1.99E-06	4.79E+12
68	479	3.01E-06	7.24E+12
69	480	4.72E-06	1.14E+13
70	481	4.37E-06	1.06E+13
71	482	4.24E-06	1.03E+13
72	483	4.55E-06	1.10E+13
73	484	4.76E-06	1.16E+13
74	485	4.63E-06	1.13E+13
75	486	5.15E-06	1.26E+13
76	487	6.30E-06	1.54E+13
77	488	7.14E-06	1.75E+13
78	489	7.24E-06	1.78E+13
79	490	7.67E-06	1.89E+13
80	491	9.02E-06	2.23E+13
81	492	1.02E-05	2.53E+13
82	493	1.08E-05	2.68E+13
83	494	1.23E-05	3.05E+13
84	495	1.35E-05	3.37E+13
85	496	1.50E-05	3.75E+13
86	497	1.69E-05	4.23E+13
87	498	1.84E-05	4.61E+13
88	499	1.99E-05	5.00E+13
89	500	2.21E-05	5.56E+13
90	501	2.44E-05	6.16E+13
91	502	2.65E-05	6.69E+13
92	503	2.82E-05	7.12E+13
93	504	3.04E-05	7.71E+13
94	505	3.28E-05	8.33E+13
95	506	3.56E-05	9.06E+13
96	507	3.79E-05	9.67E+13
97	508	4.03E-05	1.03E+14
98	509	4.34E-05	1.11E+14
99	510	4.59E-05	1.18E+14
100	511	4.78E-05	1.23E+14
101	512	4.96E-05	1.28E+14
102	513	5.28E-05	1.36E+14
103	514	5.56E-05	1.44E+14
104	515	5.83E-05	1.51E+14
105	516	6.05E-05	1.57E+14
106	517	6.23E-05	1.62E+14
107	518	6.48E-05	1.69E+14
108	519	6.66E-05	1.74E+14
109	520	6.81E-05	1.78E+14
110	521	6.94E-05	1.82E+14
111	522	7.11E-05	1.87E+14
112	523	7.36E-05	1.93E+14
113	524	7.54E-05	1.99E+14
114	525	7.66E-05	2.02E+14
115	526	7.80E-05	2.06E+14
116	527	8.00E-05	2.12E+14
117	528	8.11E-05	2.15E+14
118	529	8.22E-05	2.19E+14
119	530	8.37E-05	2.23E+14
120	531	8.49E-05	2.27E+14
121	532	8.59E-05	2.30E+14
122	533	8.65E-05	2.32E+14
123	534	8.69E-05	2.33E+14
124	535	8.66E-05	2.33E+14
125	536	8.77E-05	2.36E+14
126	537	8.90E-05	2.40E+14
127	538	8.91E-05	2.41E+14
128	539	8.95E-05	2.43E+14
129	540	8.94E-05	2.43E+14
130	541	9.04E-05	2.46E+14
131	542	9.16E-05	2.50E+14
132	543	9.12E-05	2.49E+14
133	544	9.10E-05	2.49E+14
134	545	9.13E-05	2.50E+14
135	546	9.12E-05	2.50E+14
136	547	9.19E-05	2.53E+14
137	548	9.15E-05	2.52E+14
138	549	9.12E-05	2.52E+14
139	550	9.11E-05	2.52E+14
140	551	9.17E-05	2.54E+14
141	552	9.21E-05	2.56E+14
142	553	9.20E-05	2.56E+14
143	554	9.23E-05	2.57E+14
144	555	9.27E-05	2.59E+14
145	556	9.33E-05	2.61E+14
146	557	9.34E-05	2.62E+14
147	558	9.27E-05	2.60E+14
148	559	9.30E-05	2.61E+14
149	560	9.30E-05	2.62E+14
150	561	9.14E-05	2.58E+14
151	562	9.12E-05	2.58E+14
152	563	9.12E-05	2.58E+14
153	564	9.25E-05	2.62E+14
154	565	9.37E-05	2.66E+14
155	566	9.28E-05	2.64E+14
156	567	9.15E-05	2.61E+14
157	568	9.08E-05	2.59E+14
158	569	9.06E-05	2.59E+14
159	570	9.20E-05	2.64E+14
160	571	9.21E-05	2.64E+14
161	572	9.11E-05	2.62E+14
162	573	9.05E-05	2.61E+14
163	574	9.05E-05	2.61E+14
164	575	9.09E-05	2.63E+14
165	576	9.13E-05	2.64E+14
166	577	9.11E-05	2.64E+14
167	578	9.14E-05	2.66E+14
168	579	9.20E-05	2.68E+14
169	580	9.19E-05	2.68E+14
170	581	9.18E-05	2.68E+14
171	582	9.20E-05	2.69E+14
172	583	9.32E-05	2.73E+14
173	584	9.36E-05	2.75E+14
174	585	9.46E-05	2.78E+14
175	586	9.56E-05	2.82E+14
176	587	9.63E-05	2.84E+14
177	588	9.73E-05	2.88E+14
178	589	9.99E-05	2.96E+14
179	590	1.01E-04	3.00E+14
180	591	1.03E-04	3.06E+14
181	592	1.05E-04	3.12E+14
182	593	1.07E-04	3.19E+14
183	594	1.10E-04	3.30E+14
184	595	1.14E-04	3.42E+14
185	596	1.18E-04	3.54E+14
186	597	1.24E-04	3.71E+14
187	598	1.29E-04	3.87E+14
188	599	1.35E-04	4.06E+14
189	600	1.41E-04	4.26E+14
190	601	1.50E-04	4.52E+14
191	602	1.58E-04	4.79E+14
192	603	1.65E-04	5.02E+14
193	604	1.75E-04	5.30E+14
194	605	1.85E-04	5.63E+14
195	606	1.98E-04	6.03E+14
196	607	2.10E-04	6.42E+14
197	608	2.24E-04	6.83E+14
198	609	2.37E-04	7.27E+14
199	610	2.53E-04	7.75E+14
200	611	2.70E-04	8.28E+14
201	612	2.89E-04	8.88E+14
202	613	3.08E-04	9.50E+14
203	614	3.31E-04	1.02E+15
204	615	3.52E-04	1.09E+15
205	616	3.72E-04	1.15E+15
206	617	3.90E-04	1.21E+15
207	618	4.06E-04	1.26E+15
208	619	4.17E-04	1.30E+15
209	620	4.22E-04	1.32E+15
210	621	4.15E-04	1.29E+15
211	622	3.97E-04	1.24E+15
212	623	3.64E-04	1.14E+15
213	624	3.24E-04	1.01E+15
214	625	2.82E-04	8.87E+14
215	626	2.44E-04	7.68E+14
216	627	2.10E-04	6.61E+14
217	628	1.78E-04	5.63E+14
218	629	1.53E-04	4.84E+14
219	630	1.34E-04	4.25E+14
220	631	1.19E-04	3.77E+14
221	632	1.05E-04	3.35E+14
222	633	9.30E-05	2.96E+14
223	634	8.30E-05	2.65E+14
224	635	7.35E-05	2.34E+14
225	636	6.73E-05	2.15E+14
226	637	6.15E-05	1.97E+14
227	638	5.53E-05	1.77E+14
228	639	5.02E-05	1.61E+14
229	640	4.75E-05	1.53E+14
230	641	4.40E-05	1.42E+14
231	642	4.10E-05	1.32E+14
232	643	3.89E-05	1.26E+14
233	644	3.56E-05	1.15E+14
234	645	3.29E-05	1.07E+14
235	646	3.07E-05	9.97E+13
236	647	2.99E-05	9.73E+13
237	648	2.86E-05	9.30E+13
238	649	2.66E-05	8.68E+13
239	650	2.76E-05	9.00E+13
240	651	2.64E-05	8.66E+13
241	652	2.31E-05	7.58E+13
242	653	2.25E-05	7.40E+13
243	654	2.26E-05	7.43E+13
244	655	2.22E-05	7.32E+13
245	656	2.07E-05	6.84E+13
246	657	1.89E-05	6.24E+13
247	658	1.76E-05	5.81E+13
248	659	1.85E-05	6.11E+13
249	660	1.75E-05	5.81E+13
250	661	1.60E-05	5.33E+13
251	662	1.57E-05	5.23E+13
252	663	1.41E-05	4.71E+13
253	664	1.49E-05	4.98E+13
254	665	1.37E-05	4.59E+13
255	666	1.24E-05	4.15E+13
256	667	1.19E-05	4.00E+13
257	668	1.22E-05	4.09E+13
258	669	1.26E-05	4.23E+13
259	670	1.34E-05	4.53E+13
260	671	1.30E-05	4.38E+13
261	672	1.18E-05	3.97E+13
262	673	1.11E-05	3.76E+13
263	674	9.96E-06	3.38E+13
264	675	9.62E-06	3.26E+13
265	676	9.34E-06	3.17E+13
266	677	9.15E-06	3.11E+13
267	678	8.41E-06	2.87E+13
268	679	8.20E-06	2.80E+13
269	680	7.98E-06	2.73E+13
270	681	7.86E-06	2.69E+13
271	682	6.88E-06	2.36E+13
272	683	6.34E-06	2.18E+13
273	684	5.72E-06	1.97E+13
274	685	4.51E-06	1.55E+13
275	686	6.38E-06	2.20E+13
276	687	6.35E-06	2.19E+13
277	688	4.72E-06	1.63E+13
278	689	5.20E-06	1.80E+13
279	690	4.92E-06	1.71E+13
280	691	4.38E-06	1.52E+13
281	692	4.21E-06	1.47E+13
282	693	4.22E-06	1.47E+13
283	694	2.91E-06	1.02E+13
284	695	2.77E-06	9.68E+12
285	696	2.34E-06	8.18E+12
286	697	1.90E-06	6.64E+12
287	698	2.47E-06	8.66E+12
288	699	2.87E-06	1.01E+13
289	700	2.64E-06	9.27E+12
290	701	2.67E-06	9.43E+12
291	702	3.18E-06	1.12E+13
292	703	2.77E-06	9.79E+12
293	704	1.12E-06	3.95E+12
294	705	1.58E-06	5.62E+12
295	706	4.79E-07	1.70E+12
296	707	0.00E+00	0.00E+00
297	708	3.32E-06	1.18E+13
298	709	3.50E-06	1.25E+13
299	710	1.40E-06	4.99E+12
300	711	1.29E-06	4.62E+12
301	712	4.06E-07	1.45E+12
302	713	2.19E-07	7.84E+11
303	714	1.42E-07	5.08E+11
