i	lambda [nm]	el [W/(cm2nm)]	Photonen [cm-2 nm^-1 s-1]
1	300	1.54E-07	2.33E+11
2	302	3.83E-07	5.82E+11
3	304	3.37E-07	5.15E+11
4	306	1.50E-07	2.31E+11
5	308	2.05E-07	3.17E+11
6	310	3.56E-07	5.55E+11
7	312	7.11E-07	1.12E+12
8	314	0.00E+00	0.00E+00
9	316	4.42E-08	7.01E+10
10	318	6.68E-07	1.07E+12
11	320	3.21E-07	5.16E+11
12	322	3.24E-09	5.25E+09
13	324	1.27E-07	2.07E+11
14	326	3.80E-07	6.23E+11
15	328	0.00E+00	0.00E+00
16	330	2.29E-08	3.80E+10
17	332	2.77E-07	4.63E+11
18	334	7.12E-07	1.20E+12
19	336	3.18E-07	5.37E+11
20	338	0.00E+00	0.00E+00
21	340	0.00E+00	0.00E+00
22	342	6.76E-07	1.16E+12
23	344	0.00E+00	0.00E+00
24	346	6.11E-07	1.06E+12
25	348	9.73E-07	1.70E+12
26	350	8.42E-07	1.48E+12
27	352	8.90E-08	1.57E+11
28	354	5.28E-07	9.39E+11
29	356	4.63E-07	8.29E+11
30	358	2.51E-07	4.53E+11
31	360	1.43E-07	2.58E+11
32	362	0.00E+00	0.00E+00
33	364	6.96E-07	1.27E+12
34	366	4.07E-07	7.49E+11
35	368	3.02E-07	5.58E+11
36	370	3.92E-08	7.29E+10
37	372	3.89E-07	7.28E+11
38	374	0.00E+00	0.00E+00
39	376	7.21E-07	1.36E+12
40	378	1.14E-08	2.16E+10
41	380	0.00E+00	0.00E+00
42	382	5.04E-07	9.69E+11
43	384	8.36E-07	1.61E+12
44	386	5.09E-07	9.88E+11
45	388	5.48E-07	1.07E+12
46	390	9.29E-07	1.82E+12
47	392	7.63E-07	1.50E+12
48	394	0.00E+00	0.00E+00
49	396	4.58E-07	9.12E+11
50	398	2.96E-07	5.93E+11
51	400	9.33E-08	1.88E+11
52	402	7.57E-07	1.53E+12
53	404	5.88E-07	1.19E+12
54	406	1.23E-06	2.52E+12
55	408	7.15E-07	1.47E+12
56	410	1.35E-06	2.78E+12
57	412	4.37E-07	9.06E+11
58	414	1.85E-06	3.86E+12
59	416	1.97E-06	4.13E+12
60	418	2.08E-06	4.37E+12
61	420	3.86E-06	8.15E+12
62	422	4.30E-06	9.13E+12
63	424	5.28E-06	1.13E+13
64	426	5.77E-06	1.24E+13
65	428	7.94E-06	1.71E+13
66	430	9.40E-06	2.03E+13
67	432	1.09E-05	2.37E+13
68	434	1.32E-05	2.88E+13
69	436	1.56E-05	3.42E+13
70	438	1.89E-05	4.16E+13
71	440	2.20E-05	4.86E+13
72	442	2.59E-05	5.75E+13
73	444	3.07E-05	6.85E+13
74	446	3.51E-05	7.86E+13
75	448	3.78E-05	8.52E+13
76	450	4.06E-05	9.18E+13
77	452	3.98E-05	9.05E+13
78	454	3.71E-05	8.47E+13
79	456	3.46E-05	7.94E+13
80	458	3.17E-05	7.30E+13
81	460	2.90E-05	6.72E+13
82	462	2.66E-05	6.19E+13
83	464	2.55E-05	5.96E+13
84	466	2.53E-05	5.92E+13
85	468	2.35E-05	5.53E+13
86	470	2.33E-05	5.51E+13
87	472	2.23E-05	5.30E+13
88	474	2.18E-05	5.19E+13
89	476	2.11E-05	5.05E+13
90	478	2.08E-05	4.99E+13
91	480	2.11E-05	5.09E+13
92	482	2.10E-05	5.09E+13
93	484	2.20E-05	5.36E+13
94	486	2.27E-05	5.55E+13
95	488	2.38E-05	5.84E+13
96	490	2.52E-05	6.21E+13
97	492	2.67E-05	6.61E+13
98	494	2.77E-05	6.89E+13
99	496	2.91E-05	7.25E+13
100	498	3.12E-05	7.81E+13
101	500	3.34E-05	8.41E+13
102	502	3.50E-05	8.83E+13
103	504	3.67E-05	9.31E+13
104	506	3.88E-05	9.87E+13
105	508	3.99E-05	1.02E+14
106	510	4.25E-05	1.09E+14
107	512	4.40E-05	1.13E+14
108	514	4.53E-05	1.17E+14
109	516	4.70E-05	1.22E+14
110	518	4.98E-05	1.30E+14
111	520	5.09E-05	1.33E+14
112	522	5.30E-05	1.39E+14
113	524	5.44E-05	1.43E+14
114	526	5.64E-05	1.49E+14
115	528	5.77E-05	1.53E+14
116	530	5.95E-05	1.59E+14
117	532	6.18E-05	1.65E+14
118	534	6.37E-05	1.71E+14
119	536	6.50E-05	1.75E+14
120	538	6.75E-05	1.83E+14
121	540	6.98E-05	1.89E+14
122	542	7.19E-05	1.96E+14
123	544	7.42E-05	2.03E+14
124	546	7.60E-05	2.09E+14
125	548	7.85E-05	2.16E+14
126	550	8.09E-05	2.24E+14
127	552	8.33E-05	2.31E+14
128	554	8.68E-05	2.42E+14
129	556	8.89E-05	2.48E+14
130	558	9.26E-05	2.60E+14
131	560	9.50E-05	2.67E+14
132	562	9.75E-05	2.76E+14
133	564	1.01E-04	2.87E+14
134	566	1.04E-04	2.95E+14
135	568	1.06E-04	3.04E+14
136	570	1.10E-04	3.14E+14
137	572	1.13E-04	3.26E+14
138	574	1.17E-04	3.36E+14
139	576	1.19E-04	3.46E+14
140	578	1.23E-04	3.58E+14
141	580	1.26E-04	3.68E+14
142	582	1.29E-04	3.76E+14
143	584	1.32E-04	3.87E+14
144	586	1.35E-04	3.98E+14
145	588	1.37E-04	4.05E+14
146	590	1.40E-04	4.17E+14
147	592	1.42E-04	4.23E+14
148	594	1.44E-04	4.29E+14
149	596	1.45E-04	4.36E+14
150	598	1.46E-04	4.39E+14
151	600	1.47E-04	4.44E+14
152	602	1.48E-04	4.49E+14
153	604	1.49E-04	4.53E+14
154	606	1.48E-04	4.52E+14
155	608	1.47E-04	4.50E+14
156	610	1.47E-04	4.50E+14
157	612	1.46E-04	4.48E+14
158	614	1.44E-04	4.45E+14
159	616	1.42E-04	4.41E+14
160	618	1.41E-04	4.37E+14
161	620	1.37E-04	4.26E+14
162	622	1.34E-04	4.20E+14
163	624	1.32E-04	4.14E+14
164	626	1.29E-04	4.06E+14
165	628	1.26E-04	3.99E+14
166	630	1.22E-04	3.87E+14
167	632	1.18E-04	3.76E+14
168	634	1.15E-04	3.67E+14
169	636	1.11E-04	3.56E+14
170	638	1.08E-04	3.45E+14
171	640	1.04E-04	3.34E+14
172	642	1.00E-04	3.23E+14
173	644	9.44E-05	3.06E+14
174	646	9.21E-05	2.99E+14
175	648	8.79E-05	2.86E+14
176	650	8.45E-05	2.76E+14
177	652	7.99E-05	2.62E+14
178	654	7.68E-05	2.52E+14
179	656	7.34E-05	2.42E+14
180	658	6.95E-05	2.30E+14
181	660	6.71E-05	2.23E+14
182	662	6.35E-05	2.11E+14
183	664	5.99E-05	2.00E+14
184	666	5.65E-05	1.89E+14
185	668	5.40E-05	1.81E+14
186	670	5.09E-05	1.72E+14
187	672	4.83E-05	1.63E+14
188	674	4.55E-05	1.54E+14
189	676	4.27E-05	1.45E+14
190	678	4.08E-05	1.39E+14
191	680	3.78E-05	1.29E+14
192	682	3.60E-05	1.24E+14
193	684	3.35E-05	1.15E+14
194	686	3.26E-05	1.12E+14
195	688	3.05E-05	1.06E+14
196	690	2.85E-05	9.90E+13
197	692	2.69E-05	9.34E+13
198	694	2.60E-05	9.07E+13
199	696	2.35E-05	8.22E+13
200	698	2.20E-05	7.73E+13
201	700	2.14E-05	7.53E+13
202	702	1.94E-05	6.84E+13
203	704	1.88E-05	6.66E+13
204	706	1.70E-05	6.03E+13
205	708	1.63E-05	5.82E+13
206	710	1.51E-05	5.38E+13
207	712	1.38E-05	4.93E+13
208	714	1.34E-05	4.81E+13
209	716	1.29E-05	4.63E+13
210	718	1.22E-05	4.40E+13
211	720	1.13E-05	4.08E+13
212	722	1.00E-05	3.64E+13
213	724	9.29E-06	3.38E+13
214	726	9.12E-06	3.33E+13
215	728	9.28E-06	3.40E+13
216	730	8.38E-06	3.08E+13
217	732	8.05E-06	2.96E+13
218	734	7.10E-06	2.62E+13
219	736	6.91E-06	2.56E+13
220	738	5.84E-06	2.17E+13
221	740	6.49E-06	2.41E+13
222	742	4.40E-06	1.64E+13
223	744	4.90E-06	1.83E+13
224	746	5.20E-06	1.95E+13
225	748	4.29E-06	1.61E+13
226	750	4.91E-06	1.85E+13
227	752	5.73E-06	2.17E+13
228	754	4.99E-06	1.89E+13
229	756	3.29E-06	1.25E+13
230	758	3.65E-06	1.39E+13
231	760	4.12E-06	1.58E+13
232	762	2.92E-06	1.12E+13
233	764	2.90E-06	1.11E+13
234	766	3.29E-06	1.27E+13
235	768	3.39E-06	1.31E+13
236	770	7.48E-07	2.89E+12
237	772	2.09E-06	8.10E+12
238	774	4.39E-06	1.71E+13
239	776	2.46E-06	9.58E+12
240	778	2.30E-06	9.02E+12
241	780	3.55E-06	1.39E+13
242	782	1.77E-06	6.96E+12
243	784	2.51E-06	9.90E+12
244	786	1.42E-06	5.60E+12
245	788	1.69E-06	6.68E+12
246	790	4.17E-07	1.66E+12
247	792	2.09E-06	8.32E+12
248	794	2.47E-06	9.88E+12
249	796	2.30E-07	9.20E+11
250	798	1.78E-06	7.14E+12
251	800	1.24E-06	5.00E+12
252	802	2.71E-07	1.09E+12
253	804	9.10E-07	3.68E+12
254	806	8.90E-07	3.61E+12
255	808	1.63E-06	6.64E+12
256	810	0.00E+00	0.00E+00
257	812	2.84E-06	1.16E+13
258	814	1.23E-06	5.04E+12
259	816	2.41E-06	9.90E+12
260	818	0.00E+00	0.00E+00
261	820	0.00E+00	0.00E+00
262	822	6.84E-07	2.83E+12
263	824	0.00E+00	0.00E+00
264	826	9.18E-07	3.81E+12
265	828	0.00E+00	0.00E+00
266	830	0.00E+00	0.00E+00
267	832	8.75E-07	3.66E+12
268	834	0.00E+00	0.00E+00
269	836	0.00E+00	0.00E+00
270	838	0.00E+00	0.00E+00
271	840	4.62E-06	1.95E+13
272	842	0.00E+00	0.00E+00
273	844	6.81E-07	2.89E+12
274	846	2.01E-06	8.54E+12
275	848	2.94E-06	1.25E+13
276	850	5.41E-06	2.31E+13
277	852	2.82E-06	1.21E+13
278	854	3.50E-06	1.50E+13
279	856	1.76E-06	7.58E+12
280	858	2.43E-07	1.05E+12
281	860	8.68E-08	3.75E+11
282	862	2.79E-06	1.21E+13
283	864	0.00E+00	0.00E+00
284	866	9.38E-08	4.09E+11
285	868	4.63E-06	2.02E+13
286	870	6.31E-06	2.76E+13
287	872	2.49E-07	1.09E+12
288	874	6.42E-06	2.82E+13
289	876	1.51E-07	6.65E+11
290	878	4.75E-06	2.10E+13
291	880	0.00E+00	0.00E+00
292	882	4.45E-06	1.98E+13
293	884	0.00E+00	0.00E+00
294	886	0.00E+00	0.00E+00
295	888	0.00E+00	0.00E+00
296	890	8.21E-08	3.67E+11
297	892	3.28E-06	1.47E+13
298	894	2.27E-06	1.02E+13
299	896	9.59E-07	4.32E+12
300	898	7.65E-07	3.45E+12
