i	lambda [nm]	el [W/(cm2nm)]	Photonen [cm-2 nm^-1 s-1]
1	300	0.00E+00	2715290807
2	302	0.00E+00	6984784608
3	304	0.00E+00	5301798918
4	306	0.00E+00	8221857411
5	308	0.00E+00	13354258176
6	310	0.00E+00	14526652687
7	312	0.00E+00	13849928264
8	314	0.00E+00	16261972556
9	316	0.00E+00	14714523783
10	318	0.00E+00	21148526653
11	320	0.00E+00	16403487474
12	322	0.00E+00	24240322996
13	324	0.00E+00	24615263216
14	326	0.00E+00	30464683810
15	328	0.00E+00	26801508296
16	330	0.00E+00	30671559431
17	332	0.00E+00	33422285988
18	334	0.00E+00	36852058272
19	336	0.00E+00	38654894603
20	338	0.00E+00	40675514108
21	340	0.00E+00	43186366479
22	342	0.00E+00	47938251849
23	344	0.00E+00	53071772799
24	346	0.00E+00	55687378141
25	348	0.00E+00	61174925505
26	350	0.00E+00	63940698231
27	352	0.00E+00	66575433175
28	354	0.00E+00	70678236398
29	356	0.00E+00	76725379833
30	358	0.00E+00	80633300224
31	360	0.00E+00	85775300739
32	362	0.00E+00	89121675312
33	364	0.00E+00	98840267814
34	366	0.00E+00	1.03783E+11
35	368	0.00E+00	1.05853E+11
36	370	0.00E+00	1.18729E+11
37	372	0.00E+00	1.1818E+11
38	374	0.00E+00	1.21643E+11
39	376	0.00E+00	1.3393E+11
40	378	0.00E+00	1.38508E+11
41	380	0.00E+00	1.4896E+11
42	382	0.00E+00	1.57786E+11
43	384	0.00E+00	1.63186E+11
44	386	0.00E+00	1.7694E+11
45	388	0.00E+00	1.7806E+11
46	390	0.00E+00	1.87435E+11
47	392	0.00E+00	1.99666E+11
48	394	0.00E+00	2.02283E+11
49	396	0.00E+00	2.06803E+11
50	398	0.00E+00	2.22514E+11
51	400	0.00E+00	2.31766E+11
52	402	0.00E+00	2.4199E+11
53	404	0.00E+00	2.5164E+11
54	406	0.00E+00	2.68882E+11
55	408	0.00E+00	2.71925E+11
56	410	0.00E+00	2.89917E+11
57	412	0.00E+00	2.97345E+11
58	414	0.00E+00	3.09579E+11
59	416	0.00E+00	3.28383E+11
60	418	0.00E+00	3.39972E+11
61	420	0.00E+00	3.55018E+11
62	422	0.00E+00	3.61296E+11
63	424	0.00E+00	3.81737E+11
64	426	0.00E+00	3.97039E+11
65	428	0.00E+00	4.11499E+11
66	430	0.00E+00	4.19987E+11
67	432	0.00E+00	4.4117E+11
68	434	0.00E+00	4.55945E+11
69	436	0.00E+00	4.68793E+11
70	438	0.00E+00	4.91245E+11
71	440	0.00E+00	5.0919E+11
72	442	0.00E+00	5.21341E+11
73	444	0.00E+00	5.3591E+11
74	446	0.00E+00	5.56331E+11
75	448	0.00E+00	5.79262E+11
76	450	0.00E+00	5.9803E+11
77	452	0.00E+00	6.14489E+11
78	454	0.00E+00	6.32782E+11
79	456	0.00E+00	6.47774E+11
80	458	0.00E+00	6.85618E+11
81	460	0.00E+00	6.99273E+11
82	462	0.00E+00	7.17313E+11
83	464	0.00E+00	7.47772E+11
84	466	0.00E+00	7.71652E+11
85	468	0.00E+00	7.91363E+11
86	470	0.00E+00	8.10738E+11
87	472	0.00E+00	8.35806E+11
88	474	0.00E+00	8.64152E+11
89	476	0.00E+00	8.79181E+11
90	478	0.00E+00	9.09032E+11
91	480	0.00E+00	9.46386E+11
92	482	0.00E+00	9.62918E+11
93	484	0.00E+00	9.8325E+11
94	486	0.00E+00	1.00823E+12
95	488	0.00E+00	1.04627E+12
96	490	0.00E+00	1.07565E+12
97	492	0.00E+00	1.09624E+12
98	494	0.00E+00	1.136E+12
99	496	0.00E+00	1.16843E+12
100	498	0.00E+00	1.1965E+12
101	500	0.00E+00	1.22908E+12
102	502	0.00E+00	1.2694E+12
103	504	0.00E+00	1.30811E+12
104	506	0.00E+00	1.3456E+12
105	508	0.00E+00	1.38998E+12
106	510	0.00E+00	1.44231E+12
107	512	0.00E+00	1.48163E+12
108	514	0.00E+00	1.53228E+12
109	516	0.00E+00	1.57811E+12
110	518	0.00E+00	1.63E+12
111	520	0.00E+00	1.67963E+12
112	522	0.00E+00	1.72949E+12
113	524	0.00E+00	1.77944E+12
114	526	0.00E+00	1.82822E+12
115	528	0.00E+00	1.87999E+12
116	530	0.00E+00	1.93932E+12
117	532	0.00E+00	1.99126E+12
118	534	0.00E+00	2.05601E+12
119	536	0.00E+00	2.10733E+12
120	538	0.00E+00	2.15953E+12
121	540	0.00E+00	2.2055E+12
122	542	0.00E+00	2.26561E+12
123	544	0.00E+00	2.3217E+12
124	546	0.00E+00	2.38417E+12
125	548	0.00E+00	2.43776E+12
126	550	0.00E+00	2.49476E+12
127	552	0.00E+00	2.56003E+12
128	554	0.00E+00	2.61455E+12
129	556	0.00E+00	2.66996E+12
130	558	0.00E+00	2.72857E+12
131	560	0.00E+00	2.78584E+12
132	562	0.00E+00	2.84323E+12
133	564	0.00E+00	2.88774E+12
134	566	0.00E+00	2.93853E+12
135	568	0.00E+00	3.00899E+12
136	570	0.00E+00	3.05717E+12
137	572	0.00E+00	3.09268E+12
138	574	0.00E+00	3.15475E+12
139	576	0.00E+00	3.20833E+12
140	578	0.00E+00	3.26663E+12
141	580	0.00E+00	3.31938E+12
142	582	0.00E+00	3.35994E+12
143	584	0.00E+00	3.40113E+12
144	586	0.00E+00	3.46236E+12
145	588	0.00E+00	3.52247E+12
146	590	0.00E+00	3.56647E+12
147	592	0.00E+00	3.61575E+12
148	594	0.00E+00	3.66172E+12
149	596	0.00E+00	3.70842E+12
150	598	0.00E+00	3.75375E+12
151	600	0.00E+00	3.8046E+12
152	602	0.00E+00	3.85106E+12
153	604	0.00E+00	3.89746E+12
154	606	0.00E+00	3.93433E+12
155	608	0.00E+00	3.98187E+12
156	610	0.00E+00	4.02482E+12
157	612	0.00E+00	4.05405E+12
158	614	0.00E+00	4.12428E+12
159	616	0.00E+00	4.1508E+12
160	618	0.00E+00	4.18741E+12
161	620	0.00E+00	4.23033E+12
162	622	0.00E+00	4.26073E+12
163	624	0.00E+00	4.31162E+12
164	626	0.00E+00	4.35083E+12
165	628	0.00E+00	4.39644E+12
166	630	0.00E+00	4.44358E+12
167	632	0.00E+00	4.47385E+12
168	634	0.00E+00	4.50287E+12
169	636	0.00E+00	4.54896E+12
170	638	0.00E+00	4.59448E+12
171	640	0.00E+00	4.63843E+12
172	642	0.00E+00	4.6727E+12
173	644	0.00E+00	4.70592E+12
174	646	0.00E+00	4.76634E+12
175	648	0.00E+00	4.79719E+12
176	650	0.00E+00	4.84021E+12
177	652	0.00E+00	4.85402E+12
178	654	0.00E+00	4.90362E+12
179	656	0.00E+00	4.93888E+12
180	658	0.00E+00	4.97149E+12
181	660	0.00E+00	5.00797E+12
182	662	0.00E+00	5.04147E+12
183	664	0.00E+00	5.08443E+12
184	666	0.00E+00	5.09796E+12
185	668	0.00E+00	5.14037E+12
186	670	0.00E+00	5.19408E+12
187	672	0.00E+00	5.20007E+12
188	674	0.00E+00	5.22472E+12
189	676	0.00E+00	5.27324E+12
190	678	0.00E+00	5.31833E+12
191	680	0.00E+00	5.36279E+12
192	682	0.00E+00	5.38483E+12
193	684	0.00E+00	5.44472E+12
194	686	0.00E+00	5.46941E+12
195	688	0.00E+00	5.54395E+12
196	690	0.00E+00	5.57168E+12
197	692	0.00E+00	5.60228E+12
198	694	0.00E+00	5.66436E+12
199	696	0.00E+00	5.71551E+12
200	698	0.00E+00	5.78823E+12
201	700	0.00E+00	5.81144E+12
202	702	0.00E+00	5.90514E+12
203	704	0.00E+00	5.92992E+12
204	706	0.00E+00	5.97859E+12
205	708	0.00E+00	6.02053E+12
206	710	0.00E+00	6.08265E+12
207	712	0.00E+00	6.14255E+12
208	714	0.00E+00	6.18962E+12
209	716	0.00E+00	6.23566E+12
210	718	0.00E+00	6.29911E+12
211	720	0.00E+00	6.35758E+12
212	722	0.00E+00	6.36873E+12
213	724	0.00E+00	6.45382E+12
214	726	0.00E+00	6.51392E+12
215	728	0.00E+00	6.55188E+12
216	730	0.00E+00	6.65937E+12
217	732	0.00E+00	6.70024E+12
218	734	0.00E+00	6.77822E+12
219	736	0.00E+00	6.84136E+12
220	738	0.00E+00	6.8681E+12
221	740	0.00E+00	6.94048E+12
222	742	0.00E+00	6.99063E+12
223	744	0.00E+00	7.05052E+12
224	746	0.00E+00	7.08869E+12
225	748	0.00E+00	7.15516E+12
226	750	0.00E+00	7.22878E+12
227	752	0.00E+00	7.25428E+12
228	754	0.00E+00	7.3034E+12
229	756	0.00E+00	7.34571E+12
230	758	0.00E+00	7.39512E+12
231	760	0.00E+00	7.4398E+12
232	762	0.00E+00	7.52455E+12
233	764	0.00E+00	7.55273E+12
234	766	0.00E+00	7.59082E+12
235	768	0.00E+00	7.65019E+12
236	770	0.00E+00	7.69844E+12
237	772	0.00E+00	7.66874E+12
238	774	0.00E+00	7.81958E+12
239	776	0.00E+00	7.82266E+12
240	778	0.00E+00	7.85141E+12
241	780	0.00E+00	7.87374E+12
242	782	0.00E+00	8.03274E+12
243	784	0.00E+00	8.04896E+12
244	786	0.00E+00	8.0507E+12
245	788	0.00E+00	8.16249E+12
246	790	0.00E+00	8.21881E+12
247	792	0.00E+00	8.20247E+12
248	794	0.00E+00	8.26992E+12
249	796	0.00E+00	8.29148E+12
250	798	0.00E+00	8.39525E+12
251	800	0.00E+00	8.46117E+12
252	802	0.00E+00	8.51256E+12
253	804	0.00E+00	8.52492E+12
254	806	0.00E+00	8.60469E+12
255	808	0.00E+00	8.59037E+12
256	810	0.00E+00	8.69954E+12
257	812	0.00E+00	8.69115E+12
258	814	0.00E+00	8.7934E+12
259	816	0.00E+00	8.86379E+12
260	818	0.00E+00	8.86595E+12
261	820	0.00E+00	8.92911E+12
262	822	0.00E+00	8.9078E+12
263	824	0.00E+00	8.97418E+12
264	826	0.00E+00	9.04078E+12
265	828	0.00E+00	9.09542E+12
266	830	0.00E+00	9.0296E+12
267	832	0.00E+00	9.14931E+12
268	834	0.00E+00	9.13909E+12
269	836	0.00E+00	9.1956E+12
270	838	0.00E+00	9.31779E+12
271	840	0.00E+00	9.26123E+12
272	842	0.00E+00	9.30961E+12
273	844	0.00E+00	9.38606E+12
274	846	0.00E+00	9.43164E+12
275	848	0.00E+00	9.46954E+12
276	850	0.00E+00	9.52548E+12
277	852	0.00E+00	9.53771E+12
278	854	0.00E+00	9.56167E+12
279	856	0.00E+00	9.73758E+12
280	858	0.00E+00	9.71062E+12
281	860	0.00E+00	9.75856E+12
282	862	0.00E+00	9.7876E+12
283	864	0.00E+00	9.80236E+12
284	866	0.00E+00	9.96921E+12
285	868	0.00E+00	9.77989E+12
286	870	0.00E+00	1.00369E+13
287	872	0.00E+00	1.01915E+13
288	874	0.00E+00	9.96083E+12
289	876	0.00E+00	1.01601E+13
290	878	0.00E+00	1.02018E+13
291	880	0.00E+00	1.02032E+13
292	882	0.00E+00	1.02735E+13
293	884	0.00E+00	1.02317E+13
294	886	0.00E+00	1.04488E+13
295	888	0.00E+00	1.04822E+13
296	890	0.00E+00	1.02946E+13
297	892	0.00E+00	1.03711E+13
298	894	0.00E+00	1.02422E+13
299	896	0.00E+00	1.04959E+13
300	898	0.00E+00	1.05441E+13
