i	lambda [nm]	el [W/(cm2nm)]	Photonen [cm-2 nm^-1 s-1]
1	300	6.00E-07	9.05E+11
2	302	1.53E-06	2.33E+12
3	304	1.16E-06	1.77E+12
4	306	1.78E-06	2.74E+12
5	308	2.87E-06	4.45E+12
6	310	3.11E-06	4.84E+12
7	312	2.94E-06	4.62E+12
8	314	3.43E-06	5.42E+12
9	316	3.09E-06	4.90E+12
10	318	4.41E-06	7.05E+12
11	320	3.40E-06	5.47E+12
12	322	4.99E-06	8.08E+12
13	324	5.04E-06	8.21E+12
14	326	6.20E-06	1.02E+13
15	328	5.42E-06	8.93E+12
16	330	6.16E-06	1.02E+13
17	332	6.67E-06	1.11E+13
18	334	7.32E-06	1.23E+13
19	336	7.63E-06	1.29E+13
20	338	7.98E-06	1.36E+13
21	340	8.42E-06	1.44E+13
22	342	9.29E-06	1.60E+13
23	344	1.02E-05	1.77E+13
24	346	1.07E-05	1.86E+13
25	348	1.17E-05	2.04E+13
26	350	1.21E-05	2.13E+13
27	352	1.25E-05	2.22E+13
28	354	1.32E-05	2.36E+13
29	356	1.43E-05	2.56E+13
30	358	1.49E-05	2.69E+13
31	360	1.58E-05	2.86E+13
32	362	1.63E-05	2.97E+13
33	364	1.80E-05	3.29E+13
34	366	1.88E-05	3.46E+13
35	368	1.91E-05	3.53E+13
36	370	2.13E-05	3.96E+13
37	372	2.11E-05	3.94E+13
38	374	2.16E-05	4.05E+13
39	376	2.36E-05	4.46E+13
40	378	2.43E-05	4.62E+13
41	380	2.60E-05	4.97E+13
42	382	2.74E-05	5.26E+13
43	384	2.82E-05	5.44E+13
44	386	3.04E-05	5.90E+13
45	388	3.04E-05	5.94E+13
46	390	3.19E-05	6.25E+13
47	392	3.38E-05	6.66E+13
48	394	3.40E-05	6.74E+13
49	396	3.46E-05	6.89E+13
50	398	3.71E-05	7.42E+13
51	400	3.84E-05	7.73E+13
52	402	3.99E-05	8.07E+13
53	404	4.13E-05	8.39E+13
54	406	4.39E-05	8.96E+13
55	408	4.42E-05	9.06E+13
56	410	4.69E-05	9.66E+13
57	412	4.78E-05	9.91E+13
58	414	4.96E-05	1.03E+14
59	416	5.23E-05	1.09E+14
60	418	5.39E-05	1.13E+14
61	420	5.60E-05	1.18E+14
62	422	5.68E-05	1.20E+14
63	424	5.97E-05	1.27E+14
64	426	6.18E-05	1.32E+14
65	428	6.37E-05	1.37E+14
66	430	6.48E-05	1.40E+14
67	432	6.77E-05	1.47E+14
68	434	6.97E-05	1.52E+14
69	436	7.13E-05	1.56E+14
70	438	7.44E-05	1.64E+14
71	440	7.67E-05	1.70E+14
72	442	7.82E-05	1.74E+14
73	444	8.00E-05	1.79E+14
74	446	8.27E-05	1.85E+14
75	448	8.57E-05	1.93E+14
76	450	8.81E-05	1.99E+14
77	452	9.01E-05	2.05E+14
78	454	9.24E-05	2.11E+14
79	456	9.42E-05	2.16E+14
80	458	9.93E-05	2.29E+14
81	460	1.01E-04	2.33E+14
82	462	1.03E-04	2.39E+14
83	464	1.07E-04	2.49E+14
84	466	1.10E-04	2.57E+14
85	468	1.12E-04	2.64E+14
86	470	1.14E-04	2.70E+14
87	472	1.17E-04	2.79E+14
88	474	1.21E-04	2.88E+14
89	476	1.22E-04	2.93E+14
90	478	1.26E-04	3.03E+14
91	480	1.31E-04	3.15E+14
92	482	1.32E-04	3.21E+14
93	484	1.35E-04	3.28E+14
94	486	1.38E-04	3.36E+14
95	488	1.42E-04	3.49E+14
96	490	1.46E-04	3.59E+14
97	492	1.48E-04	3.65E+14
98	494	1.52E-04	3.79E+14
99	496	1.56E-04	3.89E+14
100	498	1.59E-04	3.99E+14
101	500	1.63E-04	4.10E+14
102	502	1.68E-04	4.23E+14
103	504	1.72E-04	4.36E+14
104	506	1.76E-04	4.49E+14
105	508	1.81E-04	4.63E+14
106	510	1.88E-04	4.81E+14
107	512	1.92E-04	4.94E+14
108	514	1.98E-04	5.11E+14
109	516	2.03E-04	5.26E+14
110	518	2.09E-04	5.43E+14
111	520	2.14E-04	5.60E+14
112	522	2.20E-04	5.76E+14
113	524	2.25E-04	5.93E+14
114	526	2.30E-04	6.09E+14
115	528	2.36E-04	6.27E+14
116	530	2.43E-04	6.46E+14
117	532	2.48E-04	6.64E+14
118	534	2.55E-04	6.85E+14
119	536	2.61E-04	7.02E+14
120	538	2.66E-04	7.20E+14
121	540	2.71E-04	7.35E+14
122	542	2.77E-04	7.55E+14
123	544	2.83E-04	7.74E+14
124	546	2.90E-04	7.95E+14
125	548	2.95E-04	8.13E+14
126	550	3.01E-04	8.32E+14
127	552	3.07E-04	8.53E+14
128	554	3.13E-04	8.72E+14
129	556	3.18E-04	8.90E+14
130	558	3.24E-04	9.10E+14
131	560	3.30E-04	9.29E+14
132	562	3.35E-04	9.48E+14
133	564	3.39E-04	9.63E+14
134	566	3.44E-04	9.80E+14
135	568	3.51E-04	1.00E+15
136	570	3.56E-04	1.02E+15
137	572	3.58E-04	1.03E+15
138	574	3.64E-04	1.05E+15
139	576	3.69E-04	1.07E+15
140	578	3.75E-04	1.09E+15
141	580	3.79E-04	1.11E+15
142	582	3.83E-04	1.12E+15
143	584	3.86E-04	1.13E+15
144	586	3.92E-04	1.15E+15
145	588	3.97E-04	1.17E+15
146	590	4.01E-04	1.19E+15
147	592	4.05E-04	1.21E+15
148	594	4.09E-04	1.22E+15
149	596	4.13E-04	1.24E+15
150	598	4.16E-04	1.25E+15
151	600	4.20E-04	1.27E+15
152	602	4.24E-04	1.28E+15
153	604	4.28E-04	1.30E+15
154	606	4.30E-04	1.31E+15
155	608	4.34E-04	1.33E+15
156	610	4.37E-04	1.34E+15
157	612	4.39E-04	1.35E+15
158	614	4.45E-04	1.37E+15
159	616	4.47E-04	1.38E+15
160	618	4.49E-04	1.40E+15
161	620	4.52E-04	1.41E+15
162	622	4.54E-04	1.42E+15
163	624	4.58E-04	1.44E+15
164	626	4.61E-04	1.45E+15
165	628	4.64E-04	1.47E+15
166	630	4.68E-04	1.48E+15
167	632	4.69E-04	1.49E+15
168	634	4.71E-04	1.50E+15
169	636	4.74E-04	1.52E+15
170	638	4.77E-04	1.53E+15
171	640	4.81E-04	1.55E+15
172	642	4.83E-04	1.56E+15
173	644	4.84E-04	1.57E+15
174	646	4.89E-04	1.59E+15
175	648	4.91E-04	1.60E+15
176	650	4.94E-04	1.61E+15
177	652	4.94E-04	1.62E+15
178	654	4.97E-04	1.63E+15
179	656	4.99E-04	1.65E+15
180	658	5.01E-04	1.66E+15
181	660	5.03E-04	1.67E+15
182	662	5.05E-04	1.68E+15
183	664	5.08E-04	1.69E+15
184	666	5.08E-04	1.70E+15
185	668	5.10E-04	1.71E+15
186	670	5.14E-04	1.73E+15
187	672	5.13E-04	1.73E+15
188	674	5.14E-04	1.74E+15
189	676	5.17E-04	1.76E+15
190	678	5.20E-04	1.77E+15
191	680	5.23E-04	1.79E+15
192	682	5.23E-04	1.79E+15
193	684	5.28E-04	1.81E+15
194	686	5.29E-04	1.82E+15
195	688	5.34E-04	1.85E+15
196	690	5.35E-04	1.86E+15
197	692	5.37E-04	1.87E+15
198	694	5.41E-04	1.89E+15
199	696	5.44E-04	1.91E+15
200	698	5.50E-04	1.93E+15
201	700	5.50E-04	1.94E+15
202	702	5.58E-04	1.97E+15
203	704	5.58E-04	1.98E+15
204	706	5.61E-04	1.99E+15
205	708	5.64E-04	2.01E+15
206	710	5.68E-04	2.03E+15
207	712	5.72E-04	2.05E+15
208	714	5.75E-04	2.06E+15
209	716	5.77E-04	2.08E+15
210	718	5.82E-04	2.10E+15
211	720	5.85E-04	2.12E+15
212	722	5.85E-04	2.12E+15
213	724	5.91E-04	2.15E+15
214	726	5.95E-04	2.17E+15
215	728	5.97E-04	2.18E+15
216	730	6.05E-04	2.22E+15
217	732	6.07E-04	2.23E+15
218	734	6.12E-04	2.26E+15
219	736	6.16E-04	2.28E+15
220	738	6.17E-04	2.29E+15
221	740	6.22E-04	2.31E+15
222	742	6.25E-04	2.33E+15
223	744	6.28E-04	2.35E+15
224	746	6.30E-04	2.36E+15
225	748	6.34E-04	2.39E+15
226	750	6.39E-04	2.41E+15
227	752	6.40E-04	2.42E+15
228	754	6.42E-04	2.43E+15
229	756	6.44E-04	2.45E+15
230	758	6.47E-04	2.47E+15
231	760	6.49E-04	2.48E+15
232	762	6.55E-04	2.51E+15
233	764	6.55E-04	2.52E+15
234	766	6.57E-04	2.53E+15
235	768	6.60E-04	2.55E+15
236	770	6.63E-04	2.57E+15
237	772	6.59E-04	2.56E+15
238	774	6.70E-04	2.61E+15
239	776	6.68E-04	2.61E+15
240	778	6.69E-04	2.62E+15
241	780	6.69E-04	2.62E+15
242	782	6.81E-04	2.68E+15
243	784	6.81E-04	2.68E+15
244	786	6.79E-04	2.68E+15
245	788	6.87E-04	2.72E+15
246	790	6.90E-04	2.74E+15
247	792	6.87E-04	2.73E+15
248	794	6.91E-04	2.76E+15
249	796	6.91E-04	2.76E+15
250	798	6.98E-04	2.80E+15
251	800	7.01E-04	2.82E+15
252	802	7.04E-04	2.84E+15
253	804	7.03E-04	2.84E+15
254	806	7.08E-04	2.87E+15
255	808	7.05E-04	2.86E+15
256	810	7.12E-04	2.90E+15
257	812	7.10E-04	2.90E+15
258	814	7.16E-04	2.93E+15
259	816	7.20E-04	2.95E+15
260	818	7.19E-04	2.96E+15
261	820	7.22E-04	2.98E+15
262	822	7.18E-04	2.97E+15
263	824	7.22E-04	2.99E+15
264	826	7.26E-04	3.01E+15
265	828	7.28E-04	3.03E+15
266	830	7.21E-04	3.01E+15
267	832	7.29E-04	3.05E+15
268	834	7.27E-04	3.05E+15
269	836	7.29E-04	3.07E+15
270	838	7.37E-04	3.11E+15
271	840	7.31E-04	3.09E+15
272	842	7.33E-04	3.10E+15
273	844	7.37E-04	3.13E+15
274	846	7.39E-04	3.14E+15
275	848	7.40E-04	3.16E+15
276	850	7.43E-04	3.18E+15
277	852	7.42E-04	3.18E+15
278	854	7.42E-04	3.19E+15
279	856	7.54E-04	3.25E+15
280	858	7.50E-04	3.24E+15
281	860	7.52E-04	3.25E+15
282	862	7.53E-04	3.26E+15
283	864	7.52E-04	3.27E+15
284	866	7.63E-04	3.32E+15
285	868	7.47E-04	3.26E+15
286	870	7.65E-04	3.35E+15
287	872	7.75E-04	3.40E+15
288	874	7.56E-04	3.32E+15
289	876	7.69E-04	3.39E+15
290	878	7.70E-04	3.40E+15
291	880	7.69E-04	3.40E+15
292	882	7.72E-04	3.42E+15
293	884	7.67E-04	3.41E+15
294	886	7.82E-04	3.48E+15
295	888	7.83E-04	3.49E+15
296	890	7.67E-04	3.43E+15
297	892	7.71E-04	3.46E+15
298	894	7.60E-04	3.41E+15
299	896	7.77E-04	3.50E+15
300	898	7.78E-04	3.51E+15
