i	lambda [nm]	el [W/(cm2nm)]	Photonen [cm-2 nm^-1 s-1]
1	300	5.34E-08	8.06E+10
2	302	1.37E-07	2.07E+11
3	304	1.03E-07	1.57E+11
4	306	1.59E-07	2.44E+11
5	308	2.56E-07	3.96E+11
6	310	2.77E-07	4.31E+11
7	312	2.62E-07	4.11E+11
8	314	3.06E-07	4.83E+11
9	316	2.75E-07	4.37E+11
10	318	3.93E-07	6.28E+11
11	320	3.03E-07	4.87E+11
12	322	4.44E-07	7.19E+11
13	324	4.49E-07	7.31E+11
14	326	5.52E-07	9.04E+11
15	328	4.82E-07	7.96E+11
16	330	5.49E-07	9.10E+11
17	332	5.94E-07	9.92E+11
18	334	6.51E-07	1.09E+12
19	336	6.79E-07	1.15E+12
20	338	7.10E-07	1.21E+12
21	340	7.50E-07	1.28E+12
22	342	8.28E-07	1.42E+12
23	344	9.11E-07	1.58E+12
24	346	9.50E-07	1.65E+12
25	348	1.04E-06	1.82E+12
26	350	1.08E-06	1.90E+12
27	352	1.12E-06	1.98E+12
28	354	1.18E-06	2.10E+12
29	356	1.27E-06	2.28E+12
30	358	1.33E-06	2.39E+12
31	360	1.41E-06	2.55E+12
32	362	1.45E-06	2.65E+12
33	364	1.60E-06	2.93E+12
34	366	1.67E-06	3.08E+12
35	368	1.70E-06	3.14E+12
36	370	1.89E-06	3.52E+12
37	372	1.88E-06	3.51E+12
38	374	1.92E-06	3.61E+12
39	376	2.10E-06	3.98E+12
40	378	2.16E-06	4.11E+12
41	380	2.31E-06	4.42E+12
42	382	2.44E-06	4.68E+12
43	384	2.51E-06	4.84E+12
44	386	2.71E-06	5.25E+12
45	388	2.71E-06	5.29E+12
46	390	2.84E-06	5.56E+12
47	392	3.01E-06	5.93E+12
48	394	3.03E-06	6.00E+12
49	396	3.08E-06	6.14E+12
50	398	3.30E-06	6.60E+12
51	400	3.42E-06	6.88E+12
52	402	3.55E-06	7.18E+12
53	404	3.68E-06	7.47E+12
54	406	3.91E-06	7.98E+12
55	408	3.93E-06	8.07E+12
56	410	4.17E-06	8.61E+12
57	412	4.26E-06	8.83E+12
58	414	4.41E-06	9.19E+12
59	416	4.66E-06	9.75E+12
60	418	4.80E-06	1.01E+13
61	420	4.99E-06	1.05E+13
62	422	5.05E-06	1.07E+13
63	424	5.32E-06	1.13E+13
64	426	5.50E-06	1.18E+13
65	428	5.68E-06	1.22E+13
66	430	5.77E-06	1.25E+13
67	432	6.03E-06	1.31E+13
68	434	6.20E-06	1.35E+13
69	436	6.35E-06	1.39E+13
70	438	6.62E-06	1.46E+13
71	440	6.83E-06	1.51E+13
72	442	6.96E-06	1.55E+13
73	444	7.13E-06	1.59E+13
74	446	7.36E-06	1.65E+13
75	448	7.63E-06	1.72E+13
76	450	7.85E-06	1.78E+13
77	452	8.03E-06	1.82E+13
78	454	8.23E-06	1.88E+13
79	456	8.39E-06	1.92E+13
80	458	8.84E-06	2.04E+13
81	460	8.97E-06	2.08E+13
82	462	9.17E-06	2.13E+13
83	464	9.51E-06	2.22E+13
84	466	9.78E-06	2.29E+13
85	468	9.98E-06	2.35E+13
86	470	1.02E-05	2.41E+13
87	472	1.05E-05	2.48E+13
88	474	1.08E-05	2.56E+13
89	476	1.09E-05	2.61E+13
90	478	1.12E-05	2.70E+13
91	480	1.16E-05	2.81E+13
92	482	1.18E-05	2.86E+13
93	484	1.20E-05	2.92E+13
94	486	1.22E-05	2.99E+13
95	488	1.27E-05	3.11E+13
96	490	1.30E-05	3.19E+13
97	492	1.32E-05	3.25E+13
98	494	1.36E-05	3.37E+13
99	496	1.39E-05	3.47E+13
100	498	1.42E-05	3.55E+13
101	500	1.45E-05	3.65E+13
102	502	1.49E-05	3.77E+13
103	504	1.53E-05	3.88E+13
104	506	1.57E-05	3.99E+13
105	508	1.62E-05	4.13E+13
106	510	1.67E-05	4.28E+13
107	512	1.71E-05	4.40E+13
108	514	1.76E-05	4.55E+13
109	516	1.81E-05	4.68E+13
110	518	1.86E-05	4.84E+13
111	520	1.91E-05	4.99E+13
112	522	1.96E-05	5.13E+13
113	524	2.00E-05	5.28E+13
114	526	2.05E-05	5.43E+13
115	528	2.10E-05	5.58E+13
116	530	2.16E-05	5.76E+13
117	532	2.21E-05	5.91E+13
118	534	2.27E-05	6.10E+13
119	536	2.32E-05	6.25E+13
120	538	2.37E-05	6.41E+13
121	540	2.41E-05	6.55E+13
122	542	2.47E-05	6.72E+13
123	544	2.52E-05	6.89E+13
124	546	2.58E-05	7.08E+13
125	548	2.63E-05	7.24E+13
126	550	2.68E-05	7.40E+13
127	552	2.74E-05	7.60E+13
128	554	2.79E-05	7.76E+13
129	556	2.83E-05	7.92E+13
130	558	2.89E-05	8.10E+13
131	560	2.94E-05	8.27E+13
132	562	2.99E-05	8.44E+13
133	564	3.02E-05	8.57E+13
134	566	3.07E-05	8.72E+13
135	568	3.13E-05	8.93E+13
136	570	3.17E-05	9.07E+13
137	572	3.19E-05	9.18E+13
138	574	3.24E-05	9.36E+13
139	576	3.29E-05	9.52E+13
140	578	3.34E-05	9.70E+13
141	580	3.38E-05	9.85E+13
142	582	3.41E-05	9.97E+13
143	584	3.44E-05	1.01E+14
144	586	3.49E-05	1.03E+14
145	588	3.54E-05	1.05E+14
146	590	3.57E-05	1.06E+14
147	592	3.61E-05	1.07E+14
148	594	3.64E-05	1.09E+14
149	596	3.67E-05	1.10E+14
150	598	3.71E-05	1.11E+14
151	600	3.74E-05	1.13E+14
152	602	3.78E-05	1.14E+14
153	604	3.81E-05	1.16E+14
154	606	3.83E-05	1.17E+14
155	608	3.87E-05	1.18E+14
156	610	3.90E-05	1.19E+14
157	612	3.91E-05	1.20E+14
158	614	3.97E-05	1.22E+14
159	616	3.98E-05	1.23E+14
160	618	4.00E-05	1.24E+14
161	620	4.03E-05	1.26E+14
162	622	4.04E-05	1.26E+14
163	624	4.08E-05	1.28E+14
164	626	4.10E-05	1.29E+14
165	628	4.13E-05	1.30E+14
166	630	4.16E-05	1.32E+14
167	632	4.18E-05	1.33E+14
168	634	4.19E-05	1.34E+14
169	636	4.22E-05	1.35E+14
170	638	4.25E-05	1.36E+14
171	640	4.28E-05	1.38E+14
172	642	4.30E-05	1.39E+14
173	644	4.31E-05	1.40E+14
174	646	4.36E-05	1.41E+14
175	648	4.37E-05	1.42E+14
176	650	4.40E-05	1.44E+14
177	652	4.40E-05	1.44E+14
178	654	4.43E-05	1.46E+14
179	656	4.44E-05	1.47E+14
180	658	4.46E-05	1.48E+14
181	660	4.48E-05	1.49E+14
182	662	4.50E-05	1.50E+14
183	664	4.52E-05	1.51E+14
184	666	4.52E-05	1.51E+14
185	668	4.54E-05	1.53E+14
186	670	4.58E-05	1.54E+14
187	672	4.57E-05	1.54E+14
188	674	4.58E-05	1.55E+14
189	676	4.61E-05	1.57E+14
190	678	4.63E-05	1.58E+14
191	680	4.66E-05	1.59E+14
192	682	4.66E-05	1.60E+14
193	684	4.70E-05	1.62E+14
194	686	4.71E-05	1.62E+14
195	688	4.76E-05	1.65E+14
196	690	4.77E-05	1.65E+14
197	692	4.78E-05	1.66E+14
198	694	4.82E-05	1.68E+14
199	696	4.85E-05	1.70E+14
200	698	4.90E-05	1.72E+14
201	700	4.90E-05	1.72E+14
202	702	4.97E-05	1.75E+14
203	704	4.97E-05	1.76E+14
204	706	5.00E-05	1.77E+14
205	708	5.02E-05	1.79E+14
206	710	5.06E-05	1.81E+14
207	712	5.09E-05	1.82E+14
208	714	5.12E-05	1.84E+14
209	716	5.14E-05	1.85E+14
210	718	5.18E-05	1.87E+14
211	720	5.21E-05	1.89E+14
212	722	5.21E-05	1.89E+14
213	724	5.26E-05	1.92E+14
214	726	5.30E-05	1.93E+14
215	728	5.31E-05	1.94E+14
216	730	5.39E-05	1.98E+14
217	732	5.40E-05	1.99E+14
218	734	5.45E-05	2.01E+14
219	736	5.49E-05	2.03E+14
220	738	5.49E-05	2.04E+14
221	740	5.54E-05	2.06E+14
222	742	5.56E-05	2.07E+14
223	744	5.59E-05	2.09E+14
224	746	5.61E-05	2.10E+14
225	748	5.65E-05	2.12E+14
226	750	5.69E-05	2.15E+14
227	752	5.70E-05	2.15E+14
228	754	5.72E-05	2.17E+14
229	756	5.74E-05	2.18E+14
230	758	5.76E-05	2.19E+14
231	760	5.78E-05	2.21E+14
232	762	5.83E-05	2.23E+14
233	764	5.84E-05	2.24E+14
234	766	5.85E-05	2.25E+14
235	768	5.88E-05	2.27E+14
236	770	5.90E-05	2.29E+14
237	772	5.86E-05	2.28E+14
238	774	5.96E-05	2.32E+14
239	776	5.95E-05	2.32E+14
240	778	5.96E-05	2.33E+14
241	780	5.96E-05	2.34E+14
242	782	6.06E-05	2.38E+14
243	784	6.06E-05	2.39E+14
244	786	6.05E-05	2.39E+14
245	788	6.12E-05	2.42E+14
246	790	6.14E-05	2.44E+14
247	792	6.11E-05	2.43E+14
248	794	6.15E-05	2.45E+14
249	796	6.15E-05	2.46E+14
250	798	6.21E-05	2.49E+14
251	800	6.24E-05	2.51E+14
252	802	6.27E-05	2.53E+14
253	804	6.26E-05	2.53E+14
254	806	6.30E-05	2.55E+14
255	808	6.28E-05	2.55E+14
256	810	6.34E-05	2.58E+14
257	812	6.32E-05	2.58E+14
258	814	6.38E-05	2.61E+14
259	816	6.41E-05	2.63E+14
260	818	6.40E-05	2.63E+14
261	820	6.43E-05	2.65E+14
262	822	6.40E-05	2.64E+14
263	824	6.43E-05	2.66E+14
264	826	6.46E-05	2.68E+14
265	828	6.49E-05	2.70E+14
266	830	6.42E-05	2.68E+14
267	832	6.49E-05	2.72E+14
268	834	6.47E-05	2.71E+14
269	836	6.49E-05	2.73E+14
270	838	6.56E-05	2.77E+14
271	840	6.51E-05	2.75E+14
272	842	6.53E-05	2.76E+14
273	844	6.57E-05	2.79E+14
274	846	6.58E-05	2.80E+14
275	848	6.59E-05	2.81E+14
276	850	6.62E-05	2.83E+14
277	852	6.61E-05	2.83E+14
278	854	6.61E-05	2.84E+14
279	856	6.72E-05	2.89E+14
280	858	6.68E-05	2.88E+14
281	860	6.70E-05	2.90E+14
282	862	6.70E-05	2.91E+14
283	864	6.70E-05	2.91E+14
284	866	6.80E-05	2.96E+14
285	868	6.65E-05	2.90E+14
286	870	6.81E-05	2.98E+14
287	872	6.90E-05	3.02E+14
288	874	6.73E-05	2.96E+14
289	876	6.85E-05	3.02E+14
290	878	6.86E-05	3.03E+14
291	880	6.85E-05	3.03E+14
292	882	6.88E-05	3.05E+14
293	884	6.83E-05	3.04E+14
294	886	6.96E-05	3.10E+14
295	888	6.97E-05	3.11E+14
296	890	6.83E-05	3.06E+14
297	892	6.86E-05	3.08E+14
298	894	6.76E-05	3.04E+14
299	896	6.92E-05	3.12E+14
300	898	6.93E-05	3.13E+14
